# col. 0: scale factor a
# col. 1: g_qp (a)
# col. 2: g_pp (a)
# col. 3: g (a)
# col. 4: g_v (a)
# col. 5: g_dot (a)
# col. 6: tau (a)

0.001  0  1  1  1  1.5  4.44089e-16
0.00101361  0.013116  0.98109  1.01946  0.975278  1.51441  0.015438
0.00102741  0.0264106  0.962884  1.03931  0.951157  1.52893  0.0310936
0.00104139  0.039886  0.945348  1.05955  0.927621  1.54354  0.0469695
0.00105556  0.0535449  0.928453  1.08019  0.904658  1.55825  0.0630688
0.00106993  0.0664746  0.912169  1.10124  0.882253  1.57306  0.0793945
0.00108449  0.079558  0.89647  1.1227  0.860393  1.58797  0.0959496
0.00109925  0.0928194  0.881328  1.14459  0.839065  1.60299  0.112737
0.00111421  0.106261  0.86672  1.16691  0.818255  1.6181  0.12976
0.00112937  0.11907  0.852623  1.18968  0.797953  1.63332  0.147022
0.00114474  0.132012  0.839014  1.2129  0.778144  1.64864  0.164526
0.00116032  0.14513  0.825872  1.23658  0.758818  1.66406  0.182275
0.00117612  0.158426  0.813178  1.26072  0.739964  1.67958  0.200272
0.00119212  0.171173  0.800913  1.28535  0.721568  1.69521  0.218521
0.00120835  0.184036  0.789059  1.31047  0.703622  1.71094  0.237025
0.00122479  0.197074  0.7776  1.33608  0.686113  1.72678  0.255788
0.00124146  0.21029  0.766517  1.36221  0.669031  1.74272  0.274813
0.00125836  0.223028  0.755798  1.38885  0.652367  1.75877  0.294103
0.00127548  0.235869  0.745426  1.41603  0.63611  1.77492  0.313663
0.00129284  0.248886  0.735389  1.44374  0.62025  1.79118  0.333495
0.00131044  0.26208  0.725672  1.47201  0.604778  1.80754  0.353603
0.00132827  0.274859  0.716264  1.50084  0.589684  1.82402  0.373992
0.00134635  0.287732  0.707152  1.53024  0.574959  1.8406  0.394664
0.00136468  0.30078  0.698325  1.56023  0.560595  1.85729  0.415624
0.00138325  0.314006  0.689772  1.59082  0.546583  1.87408  0.436876
0.00140207  0.326874  0.681482  1.62202  0.532915  1.89099  0.458423
0.00142116  0.339827  0.673446  1.65384  0.519581  1.90801  0.480269
0.0014405  0.352957  0.665654  1.6863  0.506575  1.92513  0.502419
0.0014601  0.366266  0.658097  1.7194  0.493887  1.94237  0.524876
0.00147998  0.379267  0.650766  1.75317  0.481511  1.95972  0.547645
0.00150012  0.392347  0.643654  1.78761  0.46944  1.97718  0.57073
0.00152053  0.405606  0.636752  1.82274  0.457665  1.99475  0.594135
0.00154123  0.419045  0.630053  1.85857  0.446179  2.01243  0.617864
0.0015622  0.432222  0.623549  1.89512  0.434976  2.03023  0.641922
0.00158347  0.445474  0.617233  1.9324  0.424049  2.04814  0.666313
0.00160502  0.458906  0.6111  1.97042  0.413391  2.06617  0.691042
0.00162686  0.472521  0.605142  2.00921  0.402996  2.08431  0.716112
0.001649  0.485915  0.599354  2.04877  0.392857  2.10257  0.74153
0.00167144  0.499382  0.59373  2.08913  0.382968  2.12094  0.767299
0.00169419  0.513032  0.588263  2.13029  0.373323  2.13943  0.793424
0.00171725  0.526867  0.58295  2.17228  0.363916  2.15804  0.819911
0.00174062  0.54052  0.577784  2.21511  0.354742  2.17676  0.846763
0.00176431  0.554243  0.57276  2.2588  0.345795  2.19561  0.873986
0.00178832  0.568153  0.567875  2.30337  0.337069  2.21457  0.901584
0.00181266  0.582252  0.563123  2.34883  0.328559  2.23365  0.929564
0.00183733  0.596203  0.558501  2.39521  0.320259  2.25285  0.957929
0.00186234  0.610224  0.554003  2.44251  0.312166  2.27218  0.986686
0.00188769  0.624435  0.549626  2.49077  0.304273  2.29162  1.01584
0.00191338  0.638841  0.545366  2.53999  0.296575  2.31119  1.04539
0.00193942  0.65313  0.541219  2.59021  0.289069  2.33088  1.07536
0.00196581  0.66749  0.537182  2.64143  0.28175  2.3507  1.10573
0.00199257  0.682045  0.533252  2.69369  0.274612  2.37064  1.13652
0.00201969  0.696799  0.529424  2.74699  0.267651  2.3907  1.16774
0.00204717  0.711467  0.525696  2.80137  0.260864  2.41089  1.19939
0.00207504  0.726207  0.522065  2.85684  0.254246  2.43121  1.23147
0.00210328  0.741148  0.518528  2.91343  0.247792  2.45165  1.26399
0.0021319  0.756292  0.515081  2.97115  0.2415  2.47222  1.29696
0.00216092  0.771379  0.511723  3.03004  0.235364  2.49292  1.33039
0.00219033  0.786541  0.50845  3.09012  0.229381  2.51375  1.36427
0.00222014  0.801909  0.50526  3.15141  0.223548  2.53471  1.39862
0.00225035  0.817487  0.502151  3.21393  0.21786  2.5558  1.43344
0.00228098  0.833035  0.49912  3.27771  0.212315  2.57702  1.46874
0.00231202  0.84866  0.496165  3.34278  0.206908  2.59837  1.50452
0.00234349  0.864499  0.493283  3.40916  0.201636  2.61986  1.5408
0.00237538  0.880553  0.490473  3.47688  0.196497  2.64148  1.57757
0.00240771  0.896603  0.487732  3.54596  0.191486  2.66323  1.61485
0.00244048  0.912736  0.485059  3.61644  0.186601  2.68512  1.65264
0.0024737  0.929088  0.482451  3.68834  0.181838  2.70715  1.69095
0.00250736  0.945663  0.479907  3.76169  0.177194  2.72931  1.72978
0.00254149  0.962259  0.477425  3.83653  0.172668  2.75161  1.76915
0.00257608  0.978942  0.475003  3.91287  0.168255  2.77405  1.80905
0.00261114  0.995853  0.47264  3.99076  0.163952  2.79663  1.84951
0.00264667  1.01299  0.470334  4.07022  0.159759  2.81935  1.89051
0.0026827  1.03018  0.468082  4.15129  0.15567  2.84221  1.93208
0.00271921  1.04746  0.465885  4.234  0.151685  2.86521  1.97422
0.00275622  1.06497  0.46374  4.31837  0.147799  2.88835  2.01694
0.00279373  1.08273  0.461646  4.40446  0.144012  2.91164  2.06024
0.00283175  1.10055  0.459601  4.49228  0.14032  2.93508  2.10413
0.00287029  1.11847  0.457605  4.58188  0.136722  2.95866  2.14863
0.00290935  1.13664  0.455655  4.6733  0.133214  2.98238  2.19374
0.00294895  1.15505  0.453752  4.76656  0.129795  3.00625  2.23946
0.00298908  1.17356  0.451892  4.86171  0.126462  3.03027  2.28581
0.00302977  1.19217  0.450076  4.95879  0.123213  3.05444  2.33279
0.003071  1.21104  0.448303  5.05783  0.120047  3.07876  2.38041
0.0031128  1.23016  0.44657  5.15888  0.116961  3.10324  2.42869
0.00315516  1.2494  0.444877  5.26198  0.113953  3.12786  2.47763
0.0031981  1.26876  0.443223  5.36716  0.111021  3.15264  2.52724
0.00324163  1.28838  0.441607  5.47447  0.108163  3.17757  2.57752
0.00328575  1.30826  0.440029  5.58396  0.105378  3.20265  2.62849
0.00333047  1.32828  0.438486  5.69567  0.102663  3.22789  2.68016
0.00337579  1.34843  0.436978  5.80964  0.100018  3.25329  2.73254
0.00342174  1.36886  0.435505  5.92592  0.0974396  3.27885  2.78563
0.00346831  1.38956  0.434065  6.04455  0.0949268  3.30456  2.83945
0.00351551  1.41042  0.432657  6.1656  0.0924779  3.33043  2.89401
0.00356336  1.43142  0.431281  6.2891  0.0900912  3.35647  2.94931
0.00361185  1.4527  0.429936  6.4151  0.0877654  3.38267  3.00536
0.00366101  1.47427  0.428622  6.54366  0.0854987  3.40903  3.06218
0.00371083  1.49603  0.427337  6.67483  0.0832898  3.43555  3.11978
0.00376134  1.51793  0.42608  6.80866  0.0811371  3.46224  3.17816
0.00381253  1.54013  0.424851  6.9452  0.0790394  3.4891  3.23735
0.00386442  1.56264  0.42365  7.08452  0.0769952  3.51613  3.29734
0.00391701  1.58534  0.422476  7.22666  0.0750031  3.54332  3.35815
0.00397032  1.60821  0.421327  7.37169  0.073062  3.57068  3.41979
0.00402436  1.63139  0.420204  7.51967  0.0711704  3.59821  3.48227
0.00407913  1.65489  0.419105  7.67065  0.0693272  3.62592  3.5456
0.00413465  1.67861  0.418031  7.82469  0.0675311  3.6538  3.6098
0.00419092  1.7025  0.41698  7.98187  0.0657809  3.68185  3.67488
0.00424796  1.72672  0.415953  8.14224  0.0640756  3.71008  3.74084
0.00430577  1.75127  0.414948  8.30586  0.0624139  3.73848  3.80771
0.00436437  1.77607  0.413964  8.47282  0.0607948  3.76706  3.87548
0.00442377  1.80106  0.413003  8.64316  0.0592171  3.79582  3.94418
0.00448398  1.82639  0.412062  8.81697  0.05768  3.82476  4.01382
0.004545  1.85206  0.411141  8.99431  0.0561822  3.85389  4.08441
0.00460686  1.878  0.410241  9.17525  0.0547229  3.88319  4.15597
0.00466956  1.90415  0.40936  9.35987  0.0533011  3.91268  4.2285
0.00473311  1.93066  0.408498  9.54825  0.0519158  3.94235  4.30202
0.00479753  1.95752  0.407654  9.74046  0.050566  3.97221  4.37654
0.00486282  1.98468  0.406829  9.93657  0.049251  4.00226  4.45208
0.00492901  2.01206  0.406022  10.1367  0.0479698  4.03249  4.52865
0.00499609  2.03982  0.405232  10.3409  0.0467216  4.06292  4.60626
0.00506408  2.06795  0.404459  10.5492  0.0455055  4.09354  4.68493
0.00513301  2.0964  0.403702  10.7617  0.0443206  4.12435  4.76468
0.00520287  2.12509  0.402962  10.9786  0.0431664  4.15535  4.84551
0.00527368  2.15417  0.402237  11.1999  0.0420418  4.18655  4.92744
0.00534545  2.18365  0.401528  11.4258  0.0409463  4.21795  5.0105
0.0054182  2.21347  0.400834  11.6562  0.039879  4.24954  5.09468
0.00549194  2.24355  0.400154  11.8913  0.0388392  4.28133  5.18001
0.00556669  2.27404  0.39949  12.1311  0.0378263  4.31332  5.26651
0.00564245  2.30494  0.398839  12.3759  0.0368395  4.34552  5.35419
0.00571924  2.33621  0.398202  12.6257  0.0358782  4.37792  5.44306
0.00579708  2.36776  0.397578  12.8805  0.0349417  4.41052  5.53314
0.00587598  2.39974  0.396968  13.1405  0.0340295  4.44333  5.62445
0.00595595  2.43215  0.396371  13.4058  0.0331408  4.47635  5.717
0.00603701  2.46497  0.395786  13.6766  0.0322752  4.50958  5.81082
0.00611917  2.49807  0.395213  13.9528  0.0314319  4.54301  5.90591
0.00620245  2.53163  0.394653  14.2347  0.0306104  4.57666  6.00231
0.00628687  2.56565  0.394104  14.5223  0.0298103  4.61053  6.10001
0.00637243  2.60009  0.393567  14.8157  0.0290308  4.6446  6.19905
0.00645916  2.63485  0.393041  15.1152  0.0282716  4.6789  6.29943
0.00654707  2.67009  0.392526  15.4207  0.027532  4.71341  6.40119
0.00663617  2.7058  0.392022  15.7325  0.0268116  4.74814  6.50433
0.00672649  2.74197  0.391528  16.0506  0.0261099  4.78309  6.60888
0.00681804  2.77848  0.391045  16.3752  0.0254264  4.81826  6.71485
0.00691083  2.81548  0.390572  16.7065  0.0247606  4.85366  6.82226
0.00700489  2.85299  0.390109  17.0444  0.0241121  4.88928  6.93114
0.00710022  2.89099  0.389655  17.3893  0.0234805  4.92514  7.0415
0.00719686  2.92935  0.389211  17.7412  0.0228653  4.96121  7.15337
0.00729481  2.96823  0.388776  18.1003  0.022266  4.99752  7.26676
0.00739409  3.00765  0.38835  18.4667  0.0216824  5.03406  7.3817
0.00749472  3.04758  0.387933  18.8405  0.0211139  5.07084  7.4982
0.00759672  3.0879  0.387524  19.222  0.0205602  5.10785  7.61628
0.00770011  3.12877  0.387124  19.6113  0.0200209  5.14509  7.73598
0.00780491  3.1702  0.386733  20.0085  0.0194957  5.18258  7.85731
0.00791113  3.21217  0.386349  20.4138  0.0189841  5.2203  7.98029
0.0080188  3.25457  0.385974  20.8274  0.0184858  5.25827  8.10494
0.00812794  3.29754  0.385606  21.2494  0.0180006  5.29648  8.2313
0.00823856  3.3411  0.385245  21.6801  0.0175279  5.33493  8.35937
0.00835069  3.38524  0.384893  22.1195  0.0170676  5.37363  8.48919
0.00846434  3.42983  0.384547  22.5678  0.0166193  5.41258  8.62078
0.00857954  3.47503  0.384209  23.0254  0.0161827  5.45178  8.75416
0.0086963  3.52084  0.383877  23.4922  0.0157575  5.49123  8.88935
0.00881466  3.56726  0.383553  23.9686  0.0153433  5.53094  9.02639
0.00893462  3.61418  0.383235  24.4547  0.01494  5.5709  9.1653
0.00905622  3.66173  0.382923  24.9507  0.0145472  5.61111  9.30609
0.00917948  3.70992  0.382618  25.4569  0.0141647  5.65159  9.4488
0.00930441  3.75877  0.382319  25.9734  0.0137922  5.69233  9.59346
0.00943104  3.80814  0.382027  26.5004  0.0134294  5.73333  9.74009
0.0095594  3.85817  0.38174  27.0382  0.013076  5.77459  9.88871
0.0096895  3.90889  0.381459  27.5869  0.012732  5.81612  10.0394
0.00982137  3.9603  0.381184  28.1469  0.0123969  5.85792  10.1921
0.00995504  4.01226  0.380915  28.7183  0.0120705  5.89999  10.3468
0.0100905  4.06493  0.380651  29.3013  0.0117528  5.94233  10.5037
0.0102279  4.11831  0.380393  29.8963  0.0114433  5.98494  10.6627
0.0103671  4.17242  0.38014  30.5034  0.0111419  6.02783  10.8239
0.0105082  4.22713  0.379892  31.1229  0.0108484  6.071  10.9873
0.0106512  4.28258  0.379649  31.755  0.0105626  6.11444  11.1529
0.0107961  4.33878  0.379411  32.4001  0.0102843  6.15817  11.3208
0.0109431  4.39575  0.379178  33.0583  0.0100133  6.20218  11.4909
0.011092  4.45336  0.378949  33.73  0.00974937  6.24648  11.6634
0.011243  4.51175  0.378726  34.4154  0.00949237  6.29106  11.8382
0.011396  4.57093  0.378507  35.1148  0.00924211  6.33593  12.0154
0.0115511  4.63092  0.378292  35.8285  0.0089984  6.3811  12.195
0.0117083  4.69159  0.378082  36.5567  0.00876109  6.42655  12.3771
0.0118676  4.75309  0.377876  37.2999  0.00853001  6.47231  12.5616
0.0120291  4.81542  0.377674  38.0582  0.00830498  6.51836  12.7487
0.0121929  4.8786  0.377476  38.832  0.00808587  6.56471  12.9382
0.0123588  4.94252  0.377282  39.6216  0.0078725  6.61136  13.1304
0.012527  5.00729  0.377093  40.4273  0.00766474  6.65831  13.3252
0.0126975  5.07295  0.376907  41.2495  0.00746243  6.70557  13.5226
0.0128703  5.1395  0.376725  42.0885  0.00726543  6.75314  13.7228
0.0130455  5.20685  0.376546  42.9447  0.00707361  6.80102  13.9256
0.013223  5.27509  0.376372  43.8183  0.00688683  6.84921  14.1312
0.013403  5.34427  0.3762  44.7098  0.00670496  6.89772  14.3397
0.0135854  5.41438  0.376033  45.6195  0.00652787  6.94654  14.5509
0.0137703  5.48535  0.375868  46.5478  0.00635543  6.99568  14.765
0.0139577  5.55726  0.375707  47.4951  0.00618753  7.04515  14.9821
0.0141477  5.63015  0.375549  48.4617  0.00602404  7.09493  15.2021
0.0143402  5.70403  0.375395  49.4481  0.00586486  7.14504  15.4251
0.0145354  5.77882  0.375243  50.4546  0.00570986  7.19548  15.6511
0.0147332  5.8546  0.375095  51.4817  0.00555894  7.24625  15.8802
0.0149337  5.93142  0.37495  52.5298  0.00541199  7.29735  16.1124
0.015137  6.00928  0.374807  53.5993  0.00526891  7.34879  16.3478
0.015343  6.0881  0.374668  54.6907  0.0051296  7.40056  16.5864
0.0155518  6.16798  0.374531  55.8044  0.00499395  7.45267  16.8282
0.0157635  6.24894  0.374397  56.9408  0.00486188  7.50513  17.0734
0.015978  6.33101  0.374266  58.1005  0.00473328  7.55792  17.3218
0.0161955  6.4141  0.374137  59.2839  0.00460808  7.61107  17.5737
0.0164159  6.49829  0.374011  60.4915  0.00448617  7.66456  17.829
0.0166393  6.58364  0.373888  61.7237  0.00436748  7.71841  18.0877
0.0168658  6.67014  0.373767  62.9812  0.00425191  7.77261  18.35
0.0170953  6.75774  0.373649  64.2644  0.00413939  7.82716  18.6158
0.017328  6.8465  0.373533  65.5738  0.00402983  7.88207  18.8853
0.0175638  6.93647  0.373419  66.9099  0.00392317  7.93735  19.1584
0.0178028  7.02766  0.373307  68.2734  0.00381932  7.99299  19.4353
0.0180451  7.12002  0.373198  69.6648  0.0037182  8.04899  19.7159
0.0182907  7.2136  0.373091  71.0846  0.00361976  8.10536  20.0003
0.0185397  7.30846  0.372986  72.5335  0.00352391  8.16211  20.2886
0.018792  7.40461  0.372884  74.012  0.00343059  8.21922  20.5809
0.0190477  7.50199  0.372783  75.5207  0.00333973  8.27672  20.8771
0.019307  7.60067  0.372684  77.0602  0.00325128  8.33459  21.1773
0.0195697  7.70069  0.372588  78.6313  0.00316515  8.39285  21.4816
0.0198361  7.80207  0.372493  80.2344  0.0030813  8.45149  21.7901
0.0201061  7.90475  0.3724  81.8704  0.00299967  8.51051  22.1028
0.0203797  8.00881  0.37231  83.5398  0.00292019  8.56993  22.4197
0.0206571  8.11428  0.37222  85.2434  0.00284281  8.62974  22.741
0.0209382  8.22119  0.372133  86.9817  0.00276747  8.68994  23.0666
0.0212232  8.32948  0.372048  88.7557  0.00269413  8.75054  23.3966
0.021512  8.43922  0.371964  90.5659  0.00262272  8.81154  23.7312
0.0218048  8.55045  0.371882  92.4132  0.0025532  8.87295  24.0703
0.0221015  8.66319  0.371801  94.2982  0.00248551  8.93476  24.414
0.0224023  8.7774  0.371723  96.2218  0.00241962  8.99698  24.7623
0.0227072  8.89313  0.371645  98.1847  0.00235546  9.05961  25.1155
0.0230163  9.01044  0.37157  100.188  0.00229301  9.12266  25.4734
0.0233295  9.12935  0.371496  102.232  0.0022322  9.18612  25.8362
0.023647  9.24981  0.371423  104.318  0.002173  9.25001  26.2039
0.0239689  9.37188  0.371352  106.446  0.00211537  9.31431  26.5767
0.0242951  9.49561  0.371282  108.618  0.00205927  9.37905  26.9545
0.0246257  9.62102  0.371214  110.835  0.00200464  9.44421  27.3375
0.0249609  9.74809  0.371147  113.097  0.00195146  9.5098  27.7257
0.0253006  9.87684  0.371081  115.405  0.00189969  9.57583  28.1191
0.025645  10.0074  0.371017  117.76  0.00184929  9.6423  28.5179
0.025994  10.1396  0.370954  120.164  0.00180022  9.70921  28.9222
0.0263478  10.2737  0.370892  122.616  0.00175245  9.77657  29.3319
0.0267063  10.4095  0.370831  125.119  0.00170595  9.84437  29.7472
0.0270698  10.5472  0.370772  127.673  0.00166068  9.91262  30.1682
0.0274382  10.6867  0.370714  130.28  0.0016166  9.98132  30.5949
0.0278117  10.8281  0.370657  132.939  0.00157369  10.0505  31.0274
0.0281902  10.9714  0.370601  135.653  0.00153192  10.1201  31.4658
0.0285738  11.1166  0.370547  138.423  0.00149126  10.1902  31.9102
0.0289627  11.2638  0.370493  141.249  0.00145167  10.2607  32.3606
0.0293569  11.413  0.370441  144.133  0.00141313  10.3318  32.8171
0.0297565  11.5641  0.370389  147.076  0.00137561  10.4032  33.2799
0.0301614  11.7173  0.370339  150.08  0.00133909  10.4752  33.7489
0.0305719  11.8726  0.370289  153.144  0.00130353  10.5477  34.2244
0.030988  12.03  0.370241  156.272  0.00126891  10.6206  34.7063
0.0314098  12.1894  0.370194  159.463  0.00123522  10.694  35.1947
0.0318372  12.3511  0.370147  162.72  0.00120241  10.7679  35.6898
0.0322705  12.5149  0.370102  166.043  0.00117048  10.8423  36.1917
0.0327097  12.6809  0.370057  169.435  0.00113939  10.9172  36.7004
0.0331549  12.8492  0.370013  172.896  0.00110912  10.9926  37.216
0.0336062  13.0197  0.369971  176.427  0.00107966  11.0685  37.7386
0.0340635  13.1926  0.369929  180.031  0.00105098  11.1449  38.2683
0.0345271  13.3677  0.369887  183.709  0.00102306  11.2218  38.8052
0.034997  13.5452  0.369847  187.462  0.00099588  11.2992  39.3495
0.0354733  13.7252  0.369808  191.291  0.000969421  11.3772  39.9011
0.0359561  13.9075  0.369769  195.199  0.000943663  11.4556  40.4603
0.0364455  14.0923  0.369731  199.187  0.000918589  11.5346  41.027
0.0369415  14.2796  0.369694  203.257  0.000894179  11.6141  41.6015
0.0374443  14.4695  0.369657  207.41  0.000870417  11.6941  42.1838
0.0379539  14.6619  0.369622  211.648  0.000847286  11.7747  42.774
0.0384704  14.8569  0.369587  215.972  0.000824768  11.8558  43.3723
0.038994  15.0545  0.369552  220.385  0.000802848  11.9375  43.9786
0.0395247  15.2548  0.369519  224.889  0.000781509  12.0197  44.5933
0.0400627  15.4579  0.369486  229.484  0.000760737  12.1025  45.2163
0.0406079  15.6637  0.369454  234.174  0.000740516  12.1858  45.8478
0.0411606  15.8722  0.369422  238.959  0.000720832  12.2696  46.4878
0.0417208  16.0835  0.369391  243.843  0.00070167  12.354  47.1366
0.0422886  16.2978  0.369361  248.826  0.000683017  12.439  47.7942
0.0428641  16.5149  0.369331  253.911  0.000664859  12.5246  48.4608
0.0434475  16.7349  0.369302  259.101  0.000647183  12.6107  49.1364
0.0440388  16.958  0.369273  264.397  0.000629976  12.6974  49.8212
0.0446382  17.184  0.369245  269.801  0.000613226  12.7847  50.5153
0.0452457  17.4132  0.369218  275.315  0.000596921  12.8726  51.2189
0.0458615  17.6453  0.369191  280.943  0.000581049  12.9611  51.932
0.0464857  17.8807  0.369165  286.685  0.000565598  13.0501  52.6549
0.0471183  18.1192  0.369139  292.545  0.000550558  13.1398  53.3876
0.0477596  18.361  0.369114  298.526  0.000535917  13.23  54.1302
0.0484096  18.606  0.369089  304.628  0.000521665  13.3209  54.8829
0.0490685  18.8544  0.369065  310.855  0.000507792  13.4123  55.6459
0.0497363  19.1061  0.369041  317.21  0.000494287  13.5044  56.4193
0.0504132  19.3612  0.369018  323.695  0.000481141  13.5971  57.2032
0.0510993  19.6198  0.368995  330.312  0.000468344  13.6904  57.9977
0.0517947  19.8818  0.368972  337.065  0.000455888  13.7844  58.8031
0.0524997  20.1475  0.368951  343.956  0.000443762  13.8789  59.6194
